# Column 0: Wavelength (nm)
# Column 1: Relative F_lambda (erg cm^-2 s^-1 nm^-1)
# Note: Column 1 can be any (energy time^-1 length^-3) since it is rescaled in the code anyway 
# 	(0)    (1)
      320.000      0.00000
      349.990      0.00000
      350.170   0.00185795
      350.430   0.00185601
      350.700   0.00185372
      350.960   0.00185178
      351.230   0.00184950
      351.490   0.00184756
      351.760   0.00184558
      352.020   0.00184336
      352.290   0.00184138
      352.550   0.00183946
      352.820   0.00183720
      353.080   0.00183528
      353.350   0.00183331
      353.620   0.00183106
      353.880   0.00182915
      354.150   0.00182719
      354.410   0.00182500
      354.680   0.00182305
      354.940   0.00182115
      355.210   0.00181892
      355.470   0.00181703
      355.740   0.00181509
      356.000   0.00181292
      356.270   0.00181099
      356.530   0.00180882
      356.800   0.00180689
      357.070   0.00180497
      357.330   0.00180282
      357.600   0.00180089
      357.860   0.00179903
      358.130   0.00179683
      358.390   0.00179497
      358.660   0.00179306
      358.920   0.00179093
      359.190   0.00178903
      359.450   0.00178717
      359.720   0.00178500
      359.980   0.00178315
      360.250   0.00178126
      360.510   0.00177915
      360.780   0.00177726
      361.050   0.00177538
      361.310   0.00177327
      361.580   0.00177139
      361.840   0.00176929
      362.110   0.00176742
      362.370   0.00176560
      362.640   0.00176346
      362.900   0.00176164
      363.170   0.00175978
      363.430   0.00175770
      363.700   0.00175584
      363.960   0.00175404
      364.230   0.00175191
      364.490   0.00175012
      364.760   0.00174827
      365.030   0.00174616
      365.290   0.00174437
      365.560   0.00174253
      365.820   0.00174047
      366.090   0.00173864
      366.350   0.00173686
      366.620   0.00173477
      366.880   0.00173299
      367.150   0.00173117
      367.410   0.00172913
      367.680   0.00172732
      367.940   0.00172528
      368.210   0.00172347
      368.470   0.00172171
      368.740   0.00171964
      369.010   0.00171784
      369.270   0.00171609
      369.540   0.00171402
      369.800   0.00171228
      370.070   0.00171049
      370.330   0.00170848
      370.600   0.00170669
      370.860   0.00170496
      371.130   0.00170291
      371.390   0.00170118
      371.660   0.00169940
      371.920   0.00169741
      372.190   0.00169564
      372.450   0.00169392
      372.720   0.00169189
      372.990   0.00169013
      373.250   0.00168814
      373.520   0.00168639
      373.780   0.00168468
      374.050   0.00168266
      374.310   0.00168096
      374.580   0.00167921
      374.840   0.00167725
      375.110   0.00167551
      375.370   0.00167382
      375.640   0.00167181
      375.900   0.00167013
      376.170   0.00166839
      376.430   0.00166645
      376.700   0.00166472
      376.970   0.00166300
      377.230   0.00166106
      377.500   0.00165934
      377.760   0.00165767
      378.030   0.00165569
      378.290   0.00165402
      378.560   0.00165205
      378.820   0.00165039
      379.090   0.00164869
      379.350   0.00164676
      379.620   0.00164507
      379.880   0.00164341
      380.150   0.00164146
      380.410   0.00163981
      380.680   0.00163812
      380.950   0.00163617
      381.210   0.00163453
      381.480   0.00163285
      381.740   0.00163095
      382.010   0.00162928
      382.270   0.00162765
      382.540   0.00162571
      382.800   0.00162409
      383.070   0.00162242
      383.330   0.00162054
      383.600   0.00161887
      383.860   0.00161700
      384.130   0.00161534
      384.400   0.00161368
      384.660   0.00161181
      384.930   0.00161016
      385.190   0.00160856
      385.460   0.00160691
      385.720   0.00160505
      385.990   0.00160341
      386.250   0.00160181
      386.520   0.00159992
      386.780   0.00159832
      387.050   0.00159669
      387.310   0.00159510
      387.580   0.00159348
      387.840   0.00159164
      388.110   0.00159001
      388.380   0.00158839
      388.640   0.00158682
      388.910   0.00158520
      389.170   0.00158363
      389.440   0.00158176
      389.700   0.00158019
      389.970   0.00157858
      390.230   0.00157702
      390.500   0.00157542
      390.760   0.00157411
      391.030   0.00157251
      391.290   0.00157096
      391.560   0.00156936
      391.820   0.00156781
      392.090   0.00156622
      392.360   0.00156463
      392.620   0.00156309
      392.890   0.00156151
      393.150   0.00155996
      393.420   0.00155839
      393.680   0.00155710
      393.950   0.00155553
      394.210   0.00155399
      394.480   0.00155242
      394.740   0.00155089
      395.010   0.00154933
      395.270   0.00154780
      395.540   0.00154624
      395.800   0.00154472
      396.070   0.00154316
      396.340   0.00154161
      396.600   0.00154009
      396.870   0.00153854
      397.130   0.00153703
      397.400   0.00153548
      397.660   0.00153423
      397.930   0.00153268
      398.190   0.00153118
      398.460   0.00152964
      398.720   0.00152814
      398.990   0.00152660
      399.250   0.00152511
      399.520   0.00152358
      399.780   0.00152184
      400.050   0.00152031
      400.320   0.00151903
      400.580   0.00151755
      400.850   0.00151603
      401.110   0.00151430
      401.380   0.00151278
      401.640   0.00151130
      401.910   0.00150979
      402.170   0.00150832
      402.440   0.00150681
      402.700   0.00150534
      402.970   0.00150383
      403.230   0.00150237
      403.500   0.00150087
      403.760   0.00149941
      404.030   0.00149791
      404.300   0.00149641
      404.560   0.00149496
      404.830   0.00149347
      405.090   0.00149201
      405.360   0.00149053
      405.620   0.00148908
      405.890   0.00148760
      406.150   0.00148615
      406.420   0.00148467
      406.680   0.00148323
      406.950   0.00148200
      407.210   0.00148056
      407.480   0.00147909
      407.740   0.00147766
      408.010   0.00147619
      408.280   0.00147472
      408.540   0.00147330
      408.810   0.00147208
      409.070   0.00147065
      409.340   0.00146919
      409.600   0.00146777
      409.870   0.00146632
      410.130   0.00146515
      410.400   0.00146369
      410.660   0.00146252
      410.930   0.00146108
      411.190   0.00145991
      411.460   0.00145847
      411.730   0.00145727
      411.990   0.00145586
      412.260   0.00145442
      412.520   0.00145326
      412.790   0.00145183
      413.050   0.00145067
      413.320   0.00144924
      413.580   0.00144809
      413.850   0.00144666
      414.110   0.00144527
      414.380   0.00144409
      414.640   0.00144270
      414.910   0.00144152
      415.170   0.00144013
      415.440   0.00143872
      415.710   0.00143754
      415.970   0.00143616
      416.240   0.00143475
      416.500   0.00143361
      416.770   0.00143220
      417.030   0.00143083
      417.300   0.00142967
      417.560   0.00142830
      417.830   0.00142690
      418.090   0.00142553
      418.360   0.00142437
      418.620   0.00142301
      418.890   0.00142161
      419.150   0.00142026
      419.420   0.00141910
      419.690   0.00141771
      419.950   0.00141636
      420.220   0.00141497
      420.480   0.00141362
      420.750   0.00141224
      421.010   0.00141089
      421.280   0.00140951
      421.540   0.00140817
      421.810   0.00140679
      422.070   0.00140545
      422.340   0.00140408
      422.600   0.00140274
      422.870   0.00140138
      423.130   0.00140004
      423.400   0.00139868
      423.670   0.00139731
      423.930   0.00139599
      424.200   0.00139463
      424.460   0.00139330
      424.730   0.00139194
      424.990   0.00139062
      425.260   0.00138927
      425.520   0.00138795
      425.790   0.00138660
      426.050   0.00138528
      426.320   0.00138394
      426.580   0.00138262
      426.850   0.00138128
      427.110   0.00137997
      427.380   0.00137863
      427.650   0.00137729
      427.910   0.00137599
      428.180   0.00137466
      428.440   0.00137335
      428.710   0.00137202
      428.970   0.00137073
      429.240   0.00136963
      429.500   0.00136834
      429.770   0.00136701
      430.030   0.00136572
      430.300   0.00136440
      430.560   0.00136311
      430.830   0.00136202
      431.090   0.00136074
      431.360   0.00135942
      431.630   0.00135811
      431.890   0.00135683
      432.160   0.00135575
      432.420   0.00135447
      432.690   0.00135316
      432.950   0.00135189
      433.220   0.00135081
      433.480   0.00134954
      433.750   0.00134824
      434.010   0.00134697
      434.280   0.00134591
      434.540   0.00134464
      434.810   0.00134335
      435.070   0.00134231
      435.340   0.00134102
      435.610   0.00133973
      435.870   0.00133847
      436.140   0.00133741
      436.400   0.00133616
      436.670   0.00133510
      436.930   0.00133385
      437.200   0.00133257
      437.460   0.00133155
      437.730   0.00133027
      437.990   0.00132903
      438.260   0.00132798
      438.520   0.00132674
      438.790   0.00132569
      439.050   0.00132445
      439.320   0.00132341
      439.590   0.00132214
      439.850   0.00132113
      440.120   0.00131987
      440.380   0.00131886
      440.650   0.00131783
      440.910   0.00131682
      441.180   0.00131556
      441.440   0.00131456
      441.710   0.00131353
      441.970   0.00131253
      442.240   0.00131128
      442.500   0.00131028
      442.770   0.00130926
      443.040   0.00130823
      443.300   0.00130702
      443.570   0.00130599
      443.830   0.00130500
      444.100   0.00130376
      444.360   0.00130277
      444.630   0.00130176
      444.890   0.00130077
      445.160   0.00129953
      445.420   0.00129855
      445.690   0.00129731
      445.950   0.00129633
      446.220   0.00129533
      446.480   0.00129412
      446.750   0.00129312
      447.020   0.00129211
      447.280   0.00129091
      447.550   0.00128991
      447.810   0.00128872
      448.080   0.00128772
      448.340   0.00128652
      448.610   0.00128553
      448.870   0.00128456
      449.140   0.00128334
      449.400   0.00128238
      449.670   0.00128116
      449.930   0.00127998
      450.200   0.00127899
      450.460   0.00127780
      450.730   0.00127660
      451.000   0.00127561
      451.260   0.00127443
      451.530   0.00127323
      451.790   0.00127205
      452.060   0.00127107
      452.320   0.00126990
      452.590   0.00126870
      452.850   0.00126775
      453.120   0.00126655
      453.380   0.00126538
      453.650   0.00126419
      453.910   0.00126325
      454.180   0.00126205
      454.440   0.00126089
      454.710   0.00125992
      454.980   0.00125874
      455.240   0.00125758
      455.510   0.00125661
      455.770   0.00125546
      456.040   0.00125428
      456.300   0.00125334
      456.570   0.00125216
      456.830   0.00125101
      457.100   0.00125005
      457.360   0.00124891
      457.630   0.00124773
      457.890   0.00124681
      458.160   0.00124563
      458.420   0.00124449
      458.690   0.00124354
      458.960   0.00124237
      459.220   0.00124145
      459.490   0.00124029
      459.750   0.00123915
      460.020   0.00123821
      460.280   0.00123707
      460.550   0.00123613
      460.810   0.00123500
      461.080   0.00123406
      461.340   0.00123293
      461.610   0.00123199
      461.870   0.00123087
      462.140   0.00122993
      462.400   0.00122881
      462.670   0.00122787
      462.940   0.00122672
      463.200   0.00122582
      463.470   0.00122467
      463.730   0.00122377
      464.000   0.00122284
      464.260   0.00122173
      464.530   0.00122080
      464.790   0.00121969
      465.060   0.00121877
      465.320   0.00121766
      465.590   0.00121674
      465.850   0.00121584
      466.120   0.00121471
      466.380   0.00121382
      466.650   0.00121269
      466.920   0.00121177
      467.180   0.00121088
      467.450   0.00120997
      467.710   0.00120887
      467.980   0.00120796
      468.240   0.00120707
      468.510   0.00120616
      468.770   0.00120507
      469.040   0.00120416
      469.300   0.00120328
      469.570   0.00120238
      469.830   0.00120150
      470.100   0.00120060
      470.370   0.00119969
      470.630   0.00119882
      470.900   0.00119792
      471.160   0.00119705
      471.430   0.00119615
      471.690   0.00119528
      471.960   0.00119459
      472.220   0.00119372
      472.490   0.00119283
      472.750   0.00119196
      473.020   0.00119107
      473.280   0.00119020
      473.550   0.00118931
      473.810   0.00118845
      474.080   0.00118756
      474.350   0.00118668
      474.610   0.00118582
      474.880   0.00118493
      475.140   0.00118407
      475.410   0.00118319
      475.670   0.00118233
      475.940   0.00118145
      476.200   0.00118060
      476.470   0.00117972
      476.730   0.00117886
      477.000   0.00117778
      477.260   0.00117693
      477.530   0.00117605
      477.790   0.00117520
      478.060   0.00117433
      478.330   0.00117325
      478.590   0.00117240
      478.860   0.00117153
      479.120   0.00117048
      479.390   0.00116961
      479.650   0.00116877
      479.920   0.00116769
      480.180   0.00116685
      480.450   0.00116578
      480.710   0.00116474
      480.980   0.00116367
      481.240   0.00116262
      481.510   0.00116176
      481.770   0.00116072
      482.040   0.00115965
      482.310   0.00115859
      482.570   0.00115776
      482.840   0.00115670
      483.100   0.00115566
      483.370   0.00115460
      483.630   0.00115377
      483.900   0.00115272
      484.160   0.00115169
      484.430   0.00115063
      484.690   0.00114960
      484.960   0.00114875
      485.220   0.00114773
      485.490   0.00114668
      485.750   0.00114586
      486.020   0.00114481
      486.290   0.00114376
      486.550   0.00114274
      486.820   0.00114190
      487.080   0.00114088
      487.350   0.00113984
      487.610   0.00113903
      487.880   0.00113798
      488.140   0.00113697
      488.410   0.00113614
      488.670   0.00113512
      488.940   0.00113429
      489.200   0.00113328
      489.470   0.00113225
      489.730   0.00113144
      490.000   0.00113041
      490.270   0.00112958
      490.530   0.00112858
      490.800   0.00112775
      491.060   0.00112675
      491.330   0.00112592
      491.590   0.00112512
      491.860   0.00112410
      492.120   0.00112330
      492.390   0.00112228
      492.650   0.00112149
      492.920   0.00112047
      493.180   0.00111967
      493.450   0.00111886
      493.710   0.00111786
      493.980   0.00111705
      494.250   0.00111603
      494.510   0.00111525
      494.780   0.00111443
      495.040   0.00111345
      495.310   0.00111264
      495.570   0.00111165
      495.840   0.00111084
      496.100   0.00110986
      496.370   0.00110905
      496.630   0.00110827
      496.900   0.00110727
      497.160   0.00110648
      497.430   0.00110568
      497.700   0.00110468
      497.960   0.00110390
      498.230   0.00110290
      498.490   0.00110213
      498.760   0.00110133
      499.020   0.00110036
      499.290   0.00109956
      499.550   0.00109879
      499.820   0.00109780
      500.080   0.00109702
      500.350   0.00109623
      500.610   0.00109526
      500.880   0.00109447
      501.140   0.00109371
      501.410   0.00109292
      501.680   0.00109193
      501.940   0.00109117
      502.210   0.00109038
      502.470   0.00108962
      502.740   0.00108863
      503.000   0.00108787
      503.270   0.00108709
      503.530   0.00108633
      503.800   0.00108535
      504.060   0.00108459
      504.330   0.00108381
      504.590   0.00108306
      504.860   0.00108208
      505.120   0.00108133
      505.390   0.00108055
      505.660   0.00107978
      505.920   0.00107883
      506.190   0.00107805
      506.450   0.00107730
      506.720   0.00107653
      506.980   0.00107558
      507.250   0.00107482
      507.510   0.00107407
      507.780   0.00107330
      508.040   0.00107236
      508.310   0.00107159
      508.570   0.00107085
      508.840   0.00107008
      509.100   0.00106914
      509.370   0.00106838
      509.640   0.00106762
      509.900   0.00106688
      510.170   0.00106612
      510.430   0.00106538
      510.700   0.00106442
      510.960   0.00106486
      511.230   0.00105823
      511.490   0.00106512
      511.760   0.00106847
      512.020   0.00106636
      512.290   0.00104472
      512.550   0.00101941
      512.820   0.00101927
      513.080   0.00104214
      513.350   0.00105542
      513.620   0.00104766
      513.880   0.00103254
      514.150   0.00103569
      514.410   0.00103711
      514.680   0.00104084
      514.940   0.00103216
      515.210   0.00102735
      515.470   0.00101577
      515.740   0.00101001
      516.000   0.00101260
      516.270  0.000998315
      516.530  0.000986390
      516.800  0.000977361
      517.060   0.00100375
      517.330   0.00101483
      517.600   0.00103207
      517.860   0.00100722
      518.130   0.00101751
      518.390   0.00101892
      518.660   0.00105078
      518.920   0.00103908
      519.190   0.00105992
      519.450   0.00126595
      519.720   0.00151139
      519.980   0.00158160
      520.250   0.00139068
      520.510   0.00115137
      520.780   0.00105707
      521.040   0.00102411
      521.310   0.00101897
      521.580   0.00102209
      521.840   0.00103442
      522.110   0.00105725
      522.370   0.00103145
      522.640   0.00100643
      522.900  0.000988334
      523.170   0.00100140
      523.430   0.00101274
      523.700   0.00102196
      523.960   0.00102489
      524.230   0.00101864
      524.490   0.00100745
      524.760  0.000997218
      525.030   0.00101232
      525.290   0.00101963
      525.560   0.00102862
      525.820   0.00100319
      526.090  0.000973217
      526.350  0.000954118
      526.620  0.000954009
      526.880  0.000972897
      527.150   0.00100484
      527.410   0.00103165
      527.680   0.00103851
      527.940   0.00104766
      528.210   0.00102232
      528.470  0.000996840
      528.740  0.000966827
      529.010  0.000977864
      529.270  0.000994577
      529.540   0.00100823
      529.800   0.00101114
      530.070   0.00101138
      530.330   0.00100164
      530.600  0.000999435
      530.860   0.00102927
      531.130   0.00103346
      531.390   0.00103032
      531.660  0.000995185
      531.920  0.000987931
      532.190  0.000981604
      532.450  0.000997277
      532.720   0.00102737
      532.990   0.00106569
      533.250   0.00104848
      533.520   0.00101458
      533.780  0.000978493
      534.050  0.000978560
      534.310  0.000988752
      534.580  0.000994238
      534.840  0.000986463
      535.110  0.000972884
      535.370  0.000970170
      535.640  0.000983683
      535.900  0.000992909
      536.170  0.000989798
      536.430  0.000979252
      536.700  0.000975033
      536.970  0.000970632
      537.230  0.000985239
      537.500  0.000978419
      537.760  0.000967160
      538.030  0.000940096
      538.290  0.000934998
      538.560  0.000940099
      538.820  0.000962659
      539.090  0.000956241
      539.350  0.000953741
      539.620  0.000940662
      539.880  0.000946692
      540.150  0.000951032
      540.410  0.000947429
      540.680  0.000963047
      540.950  0.000952953
      541.210  0.000968570
      541.480  0.000948327
      541.740  0.000960239
      542.010  0.000936330
      542.270  0.000931639
      542.540  0.000927674
      542.800  0.000937178
      543.070  0.000956967
      543.330  0.000972337
      543.600  0.000971302
      543.860  0.000973228
      544.130  0.000943708
      544.390  0.000952810
      544.660  0.000943708
      544.930  0.000966730
      545.190  0.000964068
      545.460  0.000960474
      545.720  0.000955435
      545.990  0.000962472
      546.250  0.000972815
      546.520  0.000978189
      546.780  0.000965653
      547.050  0.000936478
      547.310  0.000911367
      547.580  0.000912378
      547.840  0.000928008
      548.110  0.000927733
      548.370  0.000938053
      548.640  0.000947798
      548.910  0.000979760
      549.170  0.000972559
      549.440  0.000985367
      549.700  0.000978170
      549.970  0.000983872
      550.230  0.000972866
      550.500  0.000973660
      550.760  0.000972474
      551.030  0.000967824
      551.290  0.000960656
      551.560  0.000957647
      551.820  0.000954478
      552.090  0.000941875
      552.360  0.000921138
      552.620  0.000913105
      552.890  0.000919713
      553.150  0.000954352
      553.420  0.000961295
      553.680  0.000978182
      553.950  0.000985287
      554.210   0.00102290
      554.480   0.00103033
      554.740   0.00101886
      555.010  0.000996198
      555.270  0.000983125
      555.540  0.000971307
      555.800  0.000978230
      556.070   0.00100149
      556.340   0.00102096
      556.600   0.00102210
      556.870   0.00104387
      557.130   0.00456662
      557.400   0.00947542
      557.660    0.0128727
      557.930    0.0101687
      558.190   0.00525681
      558.460   0.00181481
      558.720   0.00100336
      558.990  0.000992147
      559.250  0.000982924
      559.520  0.000962789
      559.780  0.000962164
      560.050  0.000992233
      560.320   0.00100960
      560.580   0.00101894
      560.850  0.000976732
      561.110  0.000929764
      561.380  0.000929139
      561.640  0.000964141
      561.910   0.00102223
      562.170   0.00104203
      562.440   0.00103478
      562.700  0.000988804
      562.970  0.000947653
      563.230  0.000919340
      563.500  0.000930612
      563.760  0.000945083
      564.030  0.000953495
      564.300  0.000969165
      564.560  0.000989266
      564.830  0.000985252
      565.090  0.000954715
      565.360  0.000919237
      565.620  0.000917754
      565.890  0.000929333
      566.150  0.000946569
      566.420  0.000969069
      566.680  0.000985036
      566.950  0.000974513
      567.210  0.000962078
      567.480  0.000952985
      567.740  0.000967344
      568.010  0.000947695
      568.280  0.000937038
      568.540  0.000909699
      568.810  0.000929133
      569.070  0.000954188
      569.340  0.000981487
      569.600   0.00100211
      569.870  0.000981101
      570.130  0.000978900
      570.400  0.000947581
      570.660  0.000953808
      570.930  0.000934791
      571.190  0.000938217
      571.460  0.000943898
      571.720  0.000973379
      571.990  0.000987954
      572.260  0.000993255
      572.520  0.000969573
      572.790  0.000965799
      573.050  0.000957334
      573.320  0.000959325
      573.580  0.000951393
      573.850  0.000941187
      574.110  0.000952431
      574.380  0.000957554
      574.640  0.000962342
      574.910  0.000938408
      575.170  0.000928943
      575.440  0.000918775
      575.700  0.000936946
      575.970  0.000921055
      576.240  0.000923400
      576.500  0.000922290
      576.770  0.000941450
      577.030  0.000944145
      577.300  0.000936255
      577.560  0.000927696
      577.830  0.000927435
      578.090  0.000921656
      578.360  0.000921571
      578.620  0.000904566
      578.890  0.000901553
      579.150  0.000904601
      579.420  0.000907977
      579.680  0.000920508
      579.950  0.000925252
      580.220  0.000950674
      580.480  0.000951799
      580.750  0.000938958
      581.010  0.000918573
      581.280  0.000919866
      581.540  0.000930804
      581.810  0.000960107
      582.070  0.000978920
      582.340  0.000984305
      582.600  0.000958634
      582.870  0.000955959
      583.130  0.000954161
      583.400  0.000953377
      583.670  0.000950366
      583.930  0.000974946
      584.200   0.00112153
      584.460   0.00110683
      584.730   0.00108751
      584.990  0.000943435
      585.260  0.000955644
      585.520  0.000937628
      585.790  0.000949658
      586.050   0.00101066
      586.320   0.00114869
      586.580   0.00122353
      586.850   0.00120849
      587.110   0.00111052
      587.380   0.00107409
      587.650   0.00104535
      587.910   0.00104268
      588.180   0.00106413
      588.440   0.00187530
      588.710   0.00276316
      588.970   0.00347726
      589.240   0.00316645
      589.500   0.00257930
      589.770   0.00188548
      590.030   0.00140671
      590.300   0.00113349
      590.560   0.00109913
      590.830   0.00111792
      591.090   0.00117326
      591.360   0.00121094
      591.630   0.00119855
      591.890   0.00115275
      592.160   0.00111220
      592.420   0.00109517
      592.690   0.00112150
      592.950   0.00119032
      593.220   0.00125974
      593.480   0.00119077
      593.750   0.00107655
      594.010  0.000995774
      594.280   0.00102813
      594.540   0.00105477
      594.810   0.00111431
      595.070   0.00116440
      595.340   0.00116757
      595.610   0.00109904
      595.870   0.00100727
      596.140  0.000975945
      596.400  0.000975184
      596.670   0.00101731
      596.930   0.00105892
      597.200   0.00109913
      597.460   0.00113129
      597.730   0.00111840
      597.990   0.00106891
      598.260   0.00100023
      598.520  0.000983259
      598.790   0.00100469
      599.050  0.000997580
      599.320  0.000981612
      599.590  0.000973332
      599.850  0.000984580
      600.120   0.00101113
      600.380  0.000996369
      600.650  0.000981936
      600.910  0.000943735
      601.180  0.000924848
      601.440  0.000905327
      601.710  0.000894451
      601.970  0.000883433
      602.240  0.000879384
      602.500  0.000895602
      602.770  0.000914445
      603.030  0.000921679
      603.300  0.000911487
      603.570  0.000898322
      603.830  0.000891807
      604.100  0.000889753
      604.360  0.000888709
      604.630  0.000878058
      604.890  0.000858999
      605.160  0.000838621
      605.420  0.000825873
      605.690  0.000827321
      605.950  0.000837363
      606.220  0.000854640
      606.480  0.000862024
      606.750  0.000847466
      607.010  0.000843149
      607.280  0.000830589
      607.550  0.000844869
      607.810  0.000828055
      608.080  0.000832621
      608.340  0.000822073
      608.610  0.000823023
      608.870  0.000823493
      609.140  0.000823292
      609.400  0.000838694
      609.670  0.000842587
      609.930  0.000845179
      610.200  0.000837430
      610.460  0.000841497
      610.730  0.000838177
      611.000  0.000834206
      611.260  0.000812584
      611.530  0.000810426
      611.790  0.000791121
      612.060  0.000785544
      612.320  0.000790436
      612.590  0.000797597
      612.850  0.000800522
      613.120  0.000783697
      613.380  0.000827057
      613.650  0.000869388
      613.910  0.000910883
      614.180  0.000886548
      614.440  0.000870874
      614.710  0.000833076
      614.980  0.000824580
      615.240  0.000861290
      615.510  0.000927686
      615.770  0.000933303
      616.040  0.000867152
      616.300  0.000827195
      616.570  0.000861540
      616.830  0.000913218
      617.100   0.00140188
      617.360   0.00138461
      617.630   0.00134870
      617.890  0.000830568
      618.160  0.000797528
      618.420  0.000775848
      618.690  0.000770499
      618.960  0.000765962
      619.220  0.000776945
      619.490  0.000778544
      619.750  0.000820492
      620.020  0.000863843
      620.280  0.000883633
      620.550  0.000847635
      620.810  0.000812648
      621.080  0.000810202
      621.340  0.000824347
      621.610  0.000863403
      621.870  0.000907746
      622.140  0.000906227
      622.400  0.000851703
      622.670  0.000814396
      622.940  0.000908113
      623.200   0.00116126
      623.470   0.00136590
      623.730   0.00141231
      624.000   0.00124856
      624.260   0.00108432
      624.530  0.000933182
      624.790  0.000857888
      625.060  0.000872236
      625.320   0.00102987
      625.590   0.00121118
      625.850   0.00126484
      626.120   0.00117821
      626.380   0.00106229
      626.650  0.000992580
      626.920  0.000942864
      627.180  0.000903568
      627.450  0.000895689
      627.710  0.000905036
      627.980  0.000925348
      628.240  0.000999300
      628.510   0.00112806
      628.770   0.00117690
      629.040   0.00116702
      629.300   0.00295392
      629.570    0.0118627
      629.830    0.0204147
      630.100    0.0248438
      630.360    0.0160128
      630.630   0.00751217
      630.900   0.00113774
      631.160  0.000957127
      631.430  0.000829071
      631.690  0.000890468
      631.960  0.000986771
      632.220   0.00100155
      632.490   0.00109203
      632.750   0.00114232
      633.020   0.00122366
      633.280   0.00106683
      633.550  0.000897325
      633.810  0.000772629
      634.080  0.000764099
      634.340  0.000824794
      634.610  0.000859898
      634.880  0.000903793
      635.140  0.000963882
      635.410   0.00107364
      635.670   0.00195919
      635.940   0.00447762
      636.200   0.00713313
      636.470   0.00800603
      636.730   0.00539130
      637.000   0.00257551
      637.260  0.000786178
      637.530  0.000802315
      637.790  0.000830681
      638.060  0.000852428
      638.330  0.000875723
      638.590  0.000878028
      638.860  0.000842751
      639.120  0.000780605
      639.390  0.000741644
      639.650  0.000724146
      639.920  0.000735404
      640.180  0.000730576
      640.450  0.000745569
      640.710  0.000734654
      640.980  0.000739961
      641.240  0.000734826
      641.510  0.000751040
      641.770  0.000775200
      642.040  0.000793097
      642.310  0.000780620
      642.570  0.000749023
      642.840  0.000728486
      643.100  0.000722283
      643.370  0.000709390
      643.630  0.000688128
      643.900  0.000679764
      644.160  0.000685854
      644.430  0.000702481
      644.690  0.000718640
      644.960  0.000744542
      645.220  0.000788413
      645.490  0.000803111
      645.750  0.000813473
      646.020  0.000904616
      646.290   0.00104226
      646.550   0.00116557
      646.820   0.00114808
      647.080   0.00103032
      647.350  0.000915270
      647.610  0.000811908
      647.880  0.000792276
      648.140  0.000763724
      648.410  0.000760784
      648.670  0.000733347
      648.940  0.000717632
      649.200  0.000718269
      649.470  0.000726439
      649.730  0.000739230
      650.000  0.000744923
      650.270  0.000785827
      650.530  0.000775368
      650.800  0.000757376
      651.060  0.000712684
      651.330  0.000722061
      651.590  0.000714867
      651.860  0.000707361
      652.120  0.000712599
      652.390  0.000724873
      652.650  0.000728262
      652.920  0.000727961
      653.180  0.000725527
      653.450  0.000735481
      653.710  0.000741613
      653.980  0.000754916
      654.250  0.000757814
      654.510  0.000740248
      654.780  0.000746358
      655.040  0.000832468
      655.310  0.000846470
      655.570  0.000846134
      655.840  0.000758722
      656.100  0.000745161
      656.370  0.000718497
      656.630  0.000820097
      656.900  0.000834982
      657.160  0.000845456
      657.430  0.000787764
      657.690  0.000772248
      657.960  0.000771627
      658.230  0.000720569
      658.490  0.000729700
      658.760  0.000721203
      659.020  0.000716822
      659.290  0.000715770
      659.550  0.000716094
      659.820  0.000716559
      660.080  0.000718398
      660.350  0.000718861
      660.610  0.000721909
      660.880  0.000712383
      661.140  0.000732069
      661.410  0.000729805
      661.670  0.000732389
      661.940  0.000713509
      662.210  0.000716238
      662.470  0.000744789
      662.740  0.000774512
      663.000  0.000772700
      663.270  0.000748413
      663.530  0.000733049
      663.800  0.000733052
      664.060  0.000727494
      664.330  0.000714103
      664.590  0.000716833
      664.860  0.000717595
      665.120  0.000722125
      665.390  0.000727092
      665.660  0.000731154
      665.920  0.000727865
      666.190  0.000721116
      666.450  0.000727436
      666.720  0.000727442
      666.980  0.000727758
      667.250  0.000717872
      667.510  0.000718191
      667.780  0.000721345
      668.040  0.000721663
      668.310  0.000721970
      668.570  0.000719446
      668.840  0.000719754
      669.100  0.000720072
      669.370  0.000720678
      669.640  0.000735470
      669.900  0.000739663
      670.170  0.000739663
      670.430  0.000747282
      670.700  0.000773520
      670.960  0.000815548
      671.230  0.000808665
      671.490  0.000801501
      671.760  0.000783018
      672.020  0.000773042
      672.290  0.000767823
      672.550  0.000751171
      672.820  0.000747005
      673.080  0.000730522
      673.350  0.000770922
      673.620  0.000771206
      673.880  0.000771502
      674.150  0.000727731
      674.410  0.000730120
      674.680  0.000731903
      674.940  0.000732213
      675.210  0.000730884
      675.470  0.000734007
      675.740  0.000732530
      676.000  0.000737574
      676.270  0.000736392
      676.530  0.000736257
      676.800  0.000749409
      677.060  0.000773344
      677.330  0.000773773
      677.600  0.000758707
      677.860  0.000732600
      678.130  0.000732603
      678.390  0.000730258
      678.660  0.000730705
      678.920  0.000761356
      679.190  0.000761937
      679.450  0.000767974
      679.720  0.000766198
      679.980  0.000766199
      680.250  0.000760456
      680.510  0.000732392
      680.780  0.000732689
      681.040  0.000732997
      681.310  0.000733293
      681.580  0.000733590
      681.840  0.000733897
      682.110  0.000734192
      682.370  0.000734499
      682.640  0.000762920
      682.900  0.000770684
      683.170   0.00126894
      683.430   0.00124124
      683.700   0.00123417
      683.960  0.000757793
      684.230  0.000758078
      684.490  0.000758375
      684.760  0.000737193
      685.020  0.000737351
      685.290  0.000737644
      685.560  0.000737937
      685.820  0.000738240
      686.090   0.00147036
      686.350   0.00147112
      686.620   0.00147185
      686.880  0.000754862
      687.150  0.000755148
      687.410  0.000755299
      687.680  0.000740024
      687.940  0.000766491
      688.210  0.000766772
      688.470  0.000768661
      688.740  0.000742661
      689.000  0.000747460
      689.270  0.000746152
      689.540  0.000750645
      689.800   0.00112177
      690.070   0.00112249
      690.330   0.00112671
      690.600  0.000750507
      690.860  0.000750803
      691.130  0.000743420
      691.390  0.000743719
      691.660  0.000761646
      691.920  0.000761938
      692.190  0.000762218
      692.450  0.000744603
      692.720  0.000744890
      692.990  0.000745032
      693.250  0.000757447
      693.520  0.000770850
      693.780  0.000790308
      694.050  0.000780635
      694.310  0.000769829
      694.580  0.000750669
      694.840  0.000768810
      695.110  0.000776280
      695.370  0.000804320
      695.640  0.000826146
      695.900  0.000840351
      696.170  0.000819771
      696.430  0.000782563
      696.700  0.000850007
      696.970  0.000857713
      697.230  0.000869297
      697.500  0.000784803
      697.760  0.000771899
      698.030  0.000756414
      698.290  0.000750405
      698.560  0.000760565
      698.820  0.000764145
      699.090  0.000764279
      699.350  0.000764710
      699.620  0.000767560
      699.880  0.000785706
      700.150  0.000779404
      700.410  0.000773547
      700.680  0.000755694
      700.950  0.000750838
      701.210  0.000750988
      701.480  0.000751126
      701.740  0.000751275
      702.010  0.000751271
      702.270  0.000751420
      702.540  0.000752128
      702.800  0.000756972
      703.070  0.000759242
      703.330  0.000758676
      703.600  0.000760233
      703.860  0.000818487
      704.130  0.000839902
      704.390  0.000834339
      704.660  0.000776261
      704.930  0.000771992
      705.190  0.000771707
      705.460  0.000769852
      705.720  0.000770844
      705.990  0.000788821
      706.250  0.000788956
      706.520  0.000775633
      706.780  0.000792467
      707.050  0.000821017
      707.310  0.000816756
      707.580  0.000796094
      707.840  0.000780120
      708.110  0.000780387
      708.370  0.000766831
      708.640  0.000754826
      708.910  0.000755385
      709.170  0.000755531
      709.440  0.000764688
      709.700  0.000766521
      709.970  0.000766652
      710.230  0.000757220
      710.500  0.000795778
      710.760  0.000810682
      711.030  0.000811077
      711.290  0.000770572
      711.560  0.000755945
      711.820  0.000755950
      712.090  0.000756084
      712.350  0.000756089
      712.620  0.000756364
      712.890  0.000764354
      713.150  0.000764636
      713.420  0.000764767
      713.680  0.000771214
      713.950  0.000771343
      714.210  0.000771622
      714.480  0.000757334
      714.740  0.000757478
      715.010  0.000757612
      715.270  0.000762090
      715.540  0.000774660
      715.800  0.000774937
      716.070  0.000770735
      716.330  0.000764731
      716.600  0.000765001
      716.870  0.000765132
      717.130  0.000758998
      717.400  0.000759130
      717.660  0.000764290
      717.930  0.000764420
      718.190  0.000764561
      718.460  0.000759820
      718.720  0.000760101
      718.990  0.000760233
      719.250  0.000760375
      719.520  0.000760646
      719.780  0.000760788
      720.050  0.000761058
      720.320  0.000761328
      720.580  0.000761609
      720.850  0.000761878
      721.110  0.000762020
      721.380  0.000762289
      721.640  0.000762569
      721.910  0.000762838
      722.170  0.000766163
      722.440  0.000766430
      722.700  0.000769752
      722.970  0.000766975
      723.230  0.000767252
      723.500  0.000764478
      723.760  0.000923096
      724.030  0.000923719
      724.300   0.00105757
      724.560  0.000916004
      724.830  0.000920354
      725.090  0.000786799
      725.360  0.000775891
      725.620  0.000772167
      725.890  0.000772431
      726.150  0.000767059
      726.420  0.000767325
      726.680  0.000778885
      726.950  0.000779146
      727.210  0.000908541
      727.480  0.000897757
      727.740  0.000898260
      728.010  0.000768945
      728.280  0.000777860
      728.540  0.000778269
      728.810  0.000781685
      729.070  0.000775783
      729.340   0.00102298
      729.600   0.00102042
      729.870   0.00101854
      730.130  0.000808897
      730.400  0.000810104
      730.660  0.000810363
      730.930  0.000809517
      731.190  0.000809092
      731.460  0.000847346
      731.720  0.000856339
      731.990  0.000856706
      732.260  0.000818971
      732.520  0.000773494
      732.790  0.000778804
      733.050  0.000778937
      733.320  0.000779332
      733.580  0.000774558
      733.850   0.00314846
      734.110   0.00317010
      734.380   0.00317329
      734.640  0.000801345
      734.910  0.000784450
      735.170  0.000784717
      735.440  0.000797754
      735.700  0.000796792
      735.970  0.000804652
      736.240  0.000784798
      736.500  0.000793347
      736.770  0.000785863
      737.030  0.000812993
      737.300  0.000808626
      737.560  0.000833695
      737.830  0.000812924
      738.090  0.000840277
      738.360  0.000815862
      738.620  0.000811243
      738.890  0.000781442
      739.150  0.000781438
      739.420  0.000780882
      739.680  0.000786827
      739.950  0.000797486
      740.220  0.000798141
      740.480  0.000792999
      740.750  0.000795815
      741.010  0.000845738
      741.280  0.000848262
      741.540  0.000877498
      741.810  0.000827436
      742.070  0.000836444
      742.340  0.000794515
      742.600  0.000826421
      742.870  0.000814409
      743.130  0.000825428
      743.400  0.000793920
      743.660  0.000816099
      743.930  0.000812039
      744.200  0.000815641
      744.460  0.000793998
      744.730  0.000794113
      744.990  0.000809138
      745.260  0.000809382
      745.520  0.000805210
      745.790  0.000805723
      746.050  0.000808659
      746.320  0.000824445
      746.580  0.000821613
      746.850   0.00107371
      747.110   0.00111376
      747.380   0.00109944
      747.640  0.000978680
      747.910  0.000940621
      748.180  0.000969152
      748.440  0.000838811
      748.710  0.000829160
      748.970  0.000800299
      749.240  0.000801879
      749.500  0.000812408
      749.770  0.000837323
      750.030  0.000854899
      750.300  0.000837398
      750.560  0.000836042
      750.830  0.000929638
      751.090  0.000933177
      751.360  0.000981420
      751.630  0.000874233
      751.890  0.000874862
      752.160   0.00131049
      752.420   0.00131031
      752.690   0.00132020
      752.950  0.000850123
      753.220  0.000872388
      753.480  0.000869963
      753.750  0.000906534
      754.010  0.000900916
      754.280  0.000893037
      754.540  0.000820632
      754.810  0.000831600
      755.070  0.000882170
      755.340  0.000893505
      755.610  0.000862350
      755.870  0.000817336
      756.140  0.000831063
      756.400  0.000847964
      756.670  0.000842507
      756.930   0.00167809
      757.200   0.00177456
      757.460   0.00177303
      757.730  0.000917477
      757.990  0.000812148
      758.260  0.000822937
      758.520  0.000818040
      758.790  0.000809710
      759.050  0.000805876
      759.320  0.000806248
      759.590   0.00106452
      759.850   0.00105889
      760.120   0.00105917
      760.380  0.000801836
      760.650  0.000802340
      760.910  0.000802723
      761.180  0.000813999
      761.440  0.000814509
      761.710  0.000829975
      761.970  0.000844653
      762.240  0.000845009
      762.500  0.000832787
      762.770  0.000808369
      763.030  0.000818579
      763.300  0.000816848
      763.570  0.000819309
      763.830  0.000810128
      764.100  0.000810627
      764.360  0.000846721
      764.630  0.000847338
      764.890  0.000847834
      765.160  0.000810680
      765.420  0.000811189
      765.690  0.000811817
      765.950   0.00107487
      766.220   0.00107554
      766.480   0.00107609
      766.750  0.000813955
      767.010  0.000819676
      767.280  0.000820300
      767.550  0.000820793
      767.810  0.000819734
      768.080  0.000820227
      768.340  0.000822162
      768.610  0.000819141
      768.870  0.000851249
      769.140  0.000850560
      769.400  0.000851183
      769.670  0.000866605
      769.930  0.000874105
      770.200  0.000874578
      770.460  0.000867923
      770.730  0.000887470
      770.990   0.00319771
      771.260   0.00363613
      771.530   0.00410302
      771.790   0.00184169
      772.060   0.00138836
      772.320   0.00137042
      772.590   0.00132438
      772.850   0.00131034
      773.120  0.000869593
      773.380  0.000870206
      773.650  0.000861371
      773.910  0.000834852
      774.180  0.000835465
      774.440  0.000840607
      774.710  0.000859418
      774.970  0.000885196
      775.240  0.000881276
      775.510  0.000858532
      775.770  0.000869974
      776.040  0.000870574
      776.300  0.000872730
      776.570  0.000837272
      776.830  0.000838021
      777.100  0.000919830
      777.360  0.000920552
      777.630  0.000921132
      777.890  0.000839193
      778.160  0.000845713
      778.420  0.000884741
      778.690  0.000899459
      778.960  0.000947032
      779.220  0.000913734
      779.490  0.000900204
      779.750  0.000848349
      780.020  0.000866003
      780.280  0.000866612
      780.550   0.00133906
      780.810   0.00131786
      781.080   0.00131817
      781.340  0.000874651
      781.610  0.000937936
      781.870   0.00587195
      782.140   0.00584141
      782.400   0.00577518
      782.670  0.000860133
      782.940  0.000860858
      783.200  0.000861466
      783.470  0.000854532
      783.730  0.000855269
      784.000  0.000856122
      784.260  0.000855711
      784.530  0.000856564
      784.790  0.000864563
      785.060   0.00448615
      785.320   0.00448352
      785.590   0.00447371
      785.850  0.000860215
      786.120  0.000860937
      786.380  0.000861670
      786.650  0.000862391
      786.920  0.000863239
      787.180  0.000863970
      787.450  0.000864690
      787.710  0.000865547
      787.980  0.000866266
      788.240  0.000867122
      788.510  0.000878873
      788.770  0.000992051
      789.040  0.000992852
      789.300  0.000982643
      789.570  0.000871234
      789.830  0.000872086
      790.100  0.000872927
      790.360  0.000873779
      790.630  0.000874619
      790.900  0.000877734
      791.160  0.000878583
      791.430  0.000879421
      791.690  0.000918920
      791.960  0.000919870
      792.220  0.000920704
      792.490  0.000880642
      792.750  0.000913150
      793.020  0.000913974
      793.280  0.000914809
      793.550  0.000884128
      793.810  0.000884972
      794.080  0.000886686
      794.340  0.000934235
      794.610  0.000967393
      794.880  0.000967442
      795.140  0.000928138
      795.410  0.000896896
      795.670  0.000897860
      795.940  0.000892278
      796.200   0.00423034
      796.470   0.00423104
      796.730   0.00423192
      797.000  0.000896110
      797.260  0.000902968
      797.530  0.000903916
      797.790  0.000904875
      798.060  0.000900058
      798.320  0.000901142
      798.590  0.000902090
      798.860  0.000914303
      799.120  0.000947417
      799.390  0.000948473
      799.650  0.000938160
      799.920  0.000908841
      800.180  0.000915794
      800.450  0.000916859
      800.710  0.000916312
      800.980  0.000911508
      801.240  0.000998328
      801.510  0.000999489
      801.770   0.00114073
      802.040   0.00106703
      802.300   0.00297171
      802.570   0.00296086
      802.840   0.00295426
      803.100   0.00105192
      803.370  0.000928837
      803.630  0.000939612
      803.900  0.000934818
      804.160  0.000934516
      804.430  0.000925873
      804.690  0.000975407
      804.960   0.00125112
      805.220   0.00126872
      805.490   0.00124669
      805.750   0.00101533
      806.020   0.00100060
      806.290  0.000991579
      806.550  0.000986176
      806.820   0.00102687
      807.080   0.00101316
      807.350   0.00100861
      807.610   0.00100927
      807.880   0.00106080
      808.140   0.00114609
      808.410   0.00111033
      808.670   0.00106125
      808.940  0.000947907
      809.200  0.000951063
      809.470  0.000970635
      809.730  0.000972176
      810.000   0.00137951
      810.270   0.00136226
      810.530   0.00140945
      810.800   0.00100703
      811.060   0.00102742
      811.330  0.000990596
      811.590   0.00100223
      811.860   0.00101200
      812.120   0.00100823
      812.390   0.00105134
      812.650   0.00103415
      812.920   0.00106431
      813.180   0.00101429
      813.450   0.00101678
      813.710   0.00102014
      813.980   0.00103283
      814.250   0.00103506
      814.510   0.00107697
      814.780   0.00131361
      815.040   0.00131049
      815.310   0.00127068
      815.570   0.00105534
      815.840   0.00104947
      816.100   0.00102108
      816.370   0.00111457
      816.630   0.00117434
      816.900   0.00121471
      817.160   0.00109183
      817.430   0.00103715
      817.690   0.00101701
      817.960   0.00102157
      818.230   0.00102404
      818.490   0.00114882
      818.760   0.00118215
      819.020   0.00121987
      819.290   0.00119689
      819.550   0.00115685
      819.820   0.00111805
      820.080  0.000999293
      820.350   0.00100055
      820.610   0.00102509
      820.880   0.00105168
      821.140   0.00106486
      821.410   0.00104601
      821.670   0.00103034
      821.940   0.00105263
      822.210   0.00105776
      822.470   0.00106496
      822.740   0.00106559
      823.000   0.00106136
      823.270   0.00107413
      823.530   0.00104477
      823.800   0.00104406
      824.060   0.00101764
      824.330   0.00107542
      824.590   0.00107969
      824.860   0.00111110
      825.120   0.00105379
      825.390   0.00108373
      825.650   0.00111125
      825.920   0.00117735
      826.190   0.00124233
      826.450   0.00120552
      826.720   0.00114210
      826.980   0.00109809
      827.250   0.00108093
      827.510   0.00133497
      827.780   0.00128609
      828.040   0.00128774
      828.310   0.00104780
      828.570   0.00457463
      828.840   0.00465361
      829.100   0.00466590
      829.370   0.00189771
      829.630   0.00367127
      829.900   0.00369478
      830.170   0.00293193
      830.430   0.00112941
      830.700   0.00109354
      830.960   0.00109500
      831.230   0.00107768
      831.490   0.00114878
      831.760   0.00115033
      832.020   0.00112509
      832.290   0.00105672
      832.550   0.00105795
      832.820   0.00105941
      833.080   0.00106088
      833.350   0.00106234
      833.620   0.00110134
      833.880   0.00117187
      834.150   0.00221231
      834.410   0.00219460
      834.680   0.00223798
      834.940   0.00119937
      835.210   0.00120018
      835.470   0.00109124
      835.740   0.00110369
      836.000   0.00108840
      836.270   0.00116637
      836.530   0.00115728
      836.800   0.00115906
      837.060   0.00111235
      837.330   0.00111402
      837.600   0.00111676
      837.860   0.00109016
      838.130   0.00119790
      838.390   0.00120254
      838.660   0.00120442
      838.920   0.00109963
      839.190   0.00110011
      839.450   0.00112955
      839.720   0.00118778
      839.980   0.00118681
      840.250   0.00116073
      840.510   0.00128660
      840.780   0.00136064
      841.040   0.00136486
      841.310   0.00126778
      841.580   0.00121141
      841.840   0.00124679
      842.110   0.00124319
      842.370   0.00130667
      842.640   0.00140024
      842.900   0.00133954
      843.170   0.00136805
      843.430   0.00127136
      843.700   0.00126858
      843.960   0.00117209
      844.230   0.00114530
      844.490   0.00113974
      844.760   0.00113784
      845.020   0.00117263
      845.290   0.00117344
      845.560   0.00117555
      845.820   0.00114457
      846.090   0.00114657
      846.350   0.00114858
      846.620   0.00119251
      846.880   0.00119568
      847.150   0.00119766
      847.410   0.00115765
      847.680   0.00115857
      847.940   0.00116058
      848.210   0.00116268
      848.470   0.00116468
      848.740   0.00116679
      849.000   0.00117880
      849.270   0.00118090
      849.540   0.00125350
      849.800   0.00124582
      850.070   0.00126884
      850.330   0.00123223
      850.600   0.00123760
      850.860   0.00121900
      851.130   0.00124587
      851.390   0.00124725
      851.660   0.00125296
      851.920   0.00123826
      852.190   0.00128516
      852.450   0.00128383
      852.720   0.00124613
      852.980   0.00120097
      853.250   0.00120316
      853.520   0.00120548
      853.780   0.00120769
      854.050   0.00120988
      854.310   0.00121209
      854.580   0.00171921
      854.840   0.00172173
      855.110   0.00172422
      855.370   0.00122076
      855.640   0.00122306
      855.900   0.00122526
      856.170   0.00122756
      856.430   0.00122987
      856.700   0.00123217
      856.960   0.00123448
      857.230   0.00123677
      857.500   0.00123907
      857.760   0.00124137
      858.030   0.00124378
      858.290   0.00124608
      858.560   0.00146408
      858.820   0.00146666
      859.090   0.00146923
      859.350   0.00130191
      859.620   0.00130430
      859.880   0.00130669
      860.150   0.00126269
      860.410   0.00126509
      860.680   0.00126749
      860.950   0.00126988
      861.210   0.00127240
      861.480   0.00127478
      861.740   0.00128914
      862.010   0.00176599
      862.270   0.00176917
      862.540   0.00276416
      862.800   0.00229219
      863.070   0.00257256
      863.330   0.00156858
      863.600   0.00157145
      863.860   0.00129674
      864.130   0.00129923
      864.390   0.00166314
      864.660   0.00176856
      864.930   0.00177136
      865.190   0.00179036
      865.460   0.00169031
      865.720   0.00169316
      865.990   0.00131687
      866.250   0.00221403
      866.520   0.00221726
      866.780   0.00335552
      867.050   0.00246306
      867.310   0.00329225
      867.580   0.00217248
      867.840   0.00246716
      868.110   0.00164299
      868.370   0.00163237
      868.640   0.00134290
      868.910   0.00145849
      869.170   0.00146128
      869.440   0.00146416
      869.700   0.00136047
      869.970   0.00136315
      870.230   0.00136562
      870.500   0.00136381
      870.760   0.00136662
      871.030   0.00136930
      871.290   0.00136946
      871.560   0.00137214
      871.820   0.00137483
      872.090   0.00137761
      872.350   0.00138041
      872.620   0.00138319
      872.890   0.00138597
      873.150   0.00138876
      873.420   0.00139154
      873.680   0.00139433
      873.950   0.00139722
      874.210   0.00147745
      874.480   0.00148042
      874.740   0.00153646
      875.010   0.00146593
      875.270   0.00146892
      875.540   0.00153402
      875.800   0.00212606
      876.070   0.00216113
      876.330   0.00398001
      876.600   0.00349692
      876.870   0.00346756
      877.130   0.00153957
      877.400   0.00143697
      877.660   0.00144008
      877.930   0.00144283
      878.190   0.00144809
      878.460   0.00148578
      878.720   0.00148876
      878.990   0.00148671
      879.250   0.00145465
      879.520   0.00145761
      879.780   0.00146059
      880.050   0.00146344
      880.310   0.00146664
      880.580   0.00146971
      880.850   0.00147267
      881.110   0.00147575
      881.380   0.00147882
      881.640   0.00148190
      881.910   0.00148496
      882.170   0.00152363
      882.440    0.0161509
      882.700    0.0161816
      882.970    0.0161833
      883.230   0.00152010
      883.500   0.00154975
      883.760   0.00153933
      884.030   0.00154259
      884.290   0.00151297
      884.560   0.00151612
      884.830   0.00156923
      885.090   0.00157272
      885.360   0.00157574
      885.620   0.00152876
      885.890   0.00153145
      886.150   0.00153473
      886.420   0.00166230
      886.680   0.00166565
      886.950   0.00166898
      887.210   0.00154766
      887.480   0.00155091
      887.740   0.00155417
      888.010   0.00155730
      888.270   0.00445709
      888.540   0.00446485
      888.810   0.00447272
      889.070   0.00157063
      889.340   0.00157386
      889.600   0.00157723
      889.870   0.00158057
      890.130   0.00158718
      890.400   0.00159052
      890.660   0.00159399
      890.930   0.00159406
      891.190   0.00159741
      891.460   0.00160086
      891.720   0.00218443
      891.990   0.00218881
      892.260   0.00219319
      892.520   0.00161453
      892.790   0.00161796
      893.050   0.00162119
      893.320   0.00162450
      893.580   0.00162783
      893.850   0.00163126
      894.110   0.00291854
      894.380   0.00292426
      894.640   0.00293001
      894.910   0.00167101
      895.170   0.00167465
      895.440   0.00167828
      895.700   0.00167098
      895.970   0.00167461
      896.240   0.00167823
      896.500   0.00166659
      896.770   0.00167022
      897.030   0.00167386
      897.300   0.00172763
      897.560   0.00173894
      897.830   0.00188900
      898.090   0.00185059
      898.360   0.00184748
      898.620   0.00172153
      898.890   0.00171701
      899.150   0.00172018
      899.420   0.00170666
      899.680   0.00171039
      899.950   0.00176765
      900.220   0.00179845
      900.480   0.00180248
      900.750   0.00175198
      901.010   0.00179388
      901.280   0.00180399
      901.540   0.00180802
      901.810   0.00175037
      902.070   0.00174831
      902.340   0.00175222
      902.600   0.00184689
      902.870   0.00185121
      903.130   0.00187791
      903.400   0.00180673
      903.660   0.00191377
      903.930   0.00189550
      904.200   0.00202134
      904.460   0.00193209
      904.730   0.00299216
      904.990   0.00288755
      905.260   0.00293065
      905.520   0.00187130
      905.790   0.00184557
      906.050   0.00180465
      906.320   0.00180874
      906.580   0.00181286
      906.850   0.00181695
      907.110   0.00182106
      907.380   0.00182514
      907.640   0.00182936
      907.910   0.00183355
      908.180   0.00194752
      908.440   0.00195181
      908.710   0.00201494
      908.970   0.00249766
      909.240   0.00253112
      909.500   0.00247839
      909.770   0.00191224
      910.030   0.00221037
      910.300   0.00221608
      910.560   0.00219854
      910.830   0.00187927
      911.090   0.00191057
      911.360   0.00192910
      911.620   0.00193359
      911.890   0.00191076
      912.160   0.00196588
      912.420   0.00216019
      912.690   0.00216547
      912.950   0.00210504
      913.220   0.00196897
      913.480   0.00197355
      913.750   0.00199737
      914.010   0.00202821
      914.280   0.00203833
      914.540   0.00207536
      914.810   0.00200577
      915.070   0.00208804
      915.340   0.00204077
      915.600   0.00212287
      915.870   0.00575879
      916.140   0.00596219
      916.400   0.00590594
      916.670   0.00215934
      916.930   0.00202513
      917.200   0.00202846
      917.460   0.00205655
      917.730   0.00211674
      917.990   0.00215917
      918.260   0.00227670
      918.520   0.00244099
      918.790   0.00250623
      919.050   0.00238442
      919.320   0.00217715
      919.590   0.00226297
      919.850   0.00234538
      920.000   0.00345457
      920.500   0.00348148
      921.000   0.00347220
      921.500   0.00345111
      922.000   0.00344772
      922.500   0.00346667
      923.000   0.00346425
      923.500   0.00344472
      924.000   0.00342608
      924.500   0.00341460
      925.000   0.00340930
      925.500   0.00341956
      926.000   0.00342052
      926.500   0.00341835
      927.000   0.00342438
      927.500   0.00338598
      928.000   0.00331509
      928.500   0.00328756
      929.000   0.00328084
      929.500   0.00323152
      930.000   0.00321677
      930.500   0.00425556
      931.000   0.00634135
      931.500   0.00691551
      932.000   0.00534614
      932.500   0.00564708
      933.000   0.00439271
      933.500   0.00321821
      934.000   0.00323822
      934.500   0.00268101
      935.000   0.00256898
      935.500   0.00257499
      936.000   0.00246368
      936.500   0.00261933
      937.000   0.00322871
      937.500   0.00589429
      938.000   0.00773859
      938.500   0.00589707
      939.000   0.00493749
      939.500   0.00417956
      940.000   0.00359564
      940.500   0.00389048
      941.000   0.00337970
      941.500   0.00330239
      942.000   0.00403917
      942.500   0.00399501
      943.000   0.00295101
      943.500   0.00386698
      944.000   0.00550032
      944.500   0.00478380
      945.000   0.00370741
      945.500   0.00351317
      946.000   0.00399662
      946.500   0.00351009
      947.000   0.00309197
      947.500   0.00523947
      948.000   0.00726118
      948.500   0.00462056
      949.000   0.00293625
      949.500   0.00276514
      950.000   0.00312968
      950.500   0.00386176
      951.000   0.00366856
      951.500   0.00413547
      952.000   0.00535546
      952.500   0.00477186
      953.000   0.00336296
      953.500   0.00291851
      954.000   0.00287872
      954.500   0.00277129
      955.000   0.00322010
      955.500   0.00365160
      956.000   0.00323598
      956.500   0.00375484
      957.000   0.00456635
      957.500   0.00390360
      958.000   0.00294436
      958.500   0.00284204
      959.000   0.00277101
      959.500   0.00274706
      960.000   0.00287521
      960.500   0.00313743
      961.000   0.00337367
      961.500   0.00330567
      962.000   0.00347432
      962.500   0.00366265
      963.000   0.00330602
      963.500   0.00299284
      964.000   0.00289886
      964.500   0.00288357
      965.000   0.00295648
      965.500   0.00310471
      966.000   0.00315932
      966.500   0.00331516
      967.000   0.00366794
      967.500   0.00367959
      968.000   0.00415981
      968.500   0.00474775
      969.000   0.00425459
      969.500   0.00452945
      970.000   0.00559773
      970.500   0.00493838
      971.000   0.00415757
      971.500   0.00507689
      972.000   0.00623724
      972.500   0.00568504
      973.000   0.00390617
      973.500   0.00362506
      974.000   0.00424641
      974.500   0.00372140
      975.000   0.00310615
      975.500   0.00299723
      976.000   0.00295195
      976.500   0.00297296
      977.000   0.00302068
      977.500   0.00303642
      978.000   0.00300838
      978.500   0.00401533
      979.000   0.00931532
      979.500    0.0134771
      980.000   0.00999980
      980.500   0.00558174
      981.000   0.00441998
      981.500   0.00414753
      982.000   0.00356191
      982.500   0.00317883
      983.000   0.00329736
      983.500   0.00317722
      984.000   0.00304411
      984.500   0.00393215
      985.000   0.00504315
      985.500   0.00425266
      986.000   0.00318185
      986.500   0.00311749
      987.000   0.00653333
      987.500    0.0100042
      988.000   0.00642794
      988.500   0.00305908
      989.000   0.00366653
      989.500   0.00497716
      990.000   0.00492748
      990.500   0.00361232
      991.000   0.00491060
      991.500   0.00859566
      992.000   0.00829899
      992.500   0.00462388
      993.000   0.00297613
      993.500   0.00304731
      994.000   0.00493008
      994.500   0.00947059
      995.000    0.0105814
      995.500   0.00821055
      996.000   0.00966797
      996.500   0.00962679
      997.000   0.00573822
      997.500   0.00405875
      998.000   0.00352164
      998.500   0.00297977
      999.000   0.00294134
      999.500   0.00314677
      1000.00   0.00365200
      1000.50   0.00377851
      1001.00   0.00768222
      1001.50    0.0124930
      1002.00   0.00883713
      1002.50   0.00549666
      1003.00   0.00550140
      1003.50   0.00395974
      1004.00   0.00346823
      1004.50   0.00399910
      1005.00   0.00355353
      1005.50   0.00328961
      1006.00   0.00416571
      1006.50   0.00479086
      1007.00   0.00435839
      1007.50   0.00377072
      1008.00   0.00559722
      1008.50   0.00788022
      1009.00   0.00541447
      1009.50   0.00302070
      1010.00   0.00380703
      1010.50   0.00479950
      1011.00   0.00407122
      1011.50   0.00304745
      1012.00   0.00498498
      1012.50   0.00809788
      1013.00   0.00682043
      1013.50   0.00390409
      1014.00   0.00300069
      1014.50   0.00311700
      1015.00   0.00423330
      1015.50   0.00572033
      1016.00   0.00556909
      1016.50   0.00454619
      1017.00   0.00787168
      1017.50    0.0116666
      1018.00   0.00800648
      1018.50   0.00656760
      1019.00   0.00961776
      1019.50   0.00884757
      1020.00   0.00625931
      1020.50   0.00711181
      1021.00    0.0112106
      1021.50    0.0129652
      1022.00   0.00736282
      1022.50   0.00482465
      1023.00   0.00744633
      1023.50   0.00702472
      1024.00   0.00411289
      1024.50   0.00277228
      1025.00   0.00276995
      1025.50   0.00276665
      1026.00   0.00276491
      1026.50   0.00280604
      1027.00   0.00311548
      1027.50   0.00335173
      1028.00   0.00442101
      1028.50    0.0187340
      1029.00    0.0322822
      1029.50    0.0219065
      1030.00    0.0117868
      1030.50   0.00757914
      1031.00   0.00531329
      1031.50   0.00497615
      1032.00   0.00342984
      1032.50   0.00323361
      1033.00   0.00360106
      1033.50   0.00318316
      1034.00   0.00295222
      1034.50   0.00569841
      1035.00   0.00865188
      1035.50   0.00604500
      1036.00   0.00314402
      1036.50   0.00279884
      1037.00    0.0111203
      1037.50    0.0207229
      1038.00    0.0125157
      1038.50   0.00339066
      1039.00   0.00290067
      1039.50   0.00629505
      1040.00   0.00944529
      1040.50   0.00586564
      1041.00   0.00269990
      1041.50    0.0107465
      1042.00    0.0208369
      1042.50    0.0139219
      1043.00   0.00432704
      1043.50   0.00275256
      1044.00   0.00267040
      1044.50   0.00330838
      1045.00   0.00594134
      1045.50   0.00729794
      1046.00   0.00457361
      1046.50   0.00698060
      1047.00    0.0135484
      1047.50    0.0109839
      1048.00   0.00456966
      1048.50   0.00262546
      1049.00   0.00262193
      1049.50   0.00262725
      1050.00   0.00263695
      1050.50   0.00353213
      1051.00   0.00499134
      1051.50   0.00456595
      1052.00   0.00448061
      1052.50   0.00705701
      1053.00   0.00734017
      1053.50   0.00422924
      1054.00   0.00259269
      1054.50   0.00258985
      1055.00   0.00258692
      1055.50   0.00258399
      1056.00   0.00258106
      1056.50   0.00258230
      1057.00   0.00310691
      1057.50   0.00368255
      1058.00   0.00332911
      1058.50   0.00387435
      1059.00   0.00461218
      1059.50   0.00346758
      1060.00   0.00256604
      1060.50   0.00256190
      1061.00   0.00255429
      1061.50   0.00254885
      1062.00   0.00254576
      1062.50   0.00254249
      1063.00   0.00253942
      1063.50   0.00256662
      1064.00   0.00273120
      1064.50   0.00284528
      1065.00   0.00295662
      1065.50   0.00312745
      1066.00   0.00283161
      1066.50   0.00253221
      1067.00   0.00251565
      1067.50   0.00251138
      1068.00   0.00258212
      1068.50   0.00305737
      1069.00   0.00365192
      1069.50   0.00458635
      1070.00   0.00567589
      1070.50   0.00540598
      1071.00   0.00701186
      1071.50   0.00891433
      1072.00   0.00696754
      1072.50   0.00951907
      1073.00    0.0142099
      1073.50    0.0101257
      1074.00   0.00612281
      1074.50   0.00799451
      1075.00    0.0132988
      1075.50    0.0164589
      1076.00   0.00862407
      1076.50   0.00250924
      1077.00   0.00497437
      1077.50   0.00756557
      1078.00   0.00503404
      1078.50   0.00252703
      1079.00   0.00245487
      1079.50   0.00245799
      1080.00   0.00245398
      1080.50   0.00245257
      1081.00   0.00243978
      1081.50   0.00242709
      1082.00   0.00242810
      1082.50   0.00495335
      1083.00    0.0249506
      1083.50    0.0412792
      1084.00    0.0276486
      1084.50    0.0162426
      1085.00   0.00913567
      1085.50   0.00521133
      1086.00   0.00699540
      1086.50   0.00450557
      1087.00   0.00255087
      1087.50   0.00325140
      1088.00   0.00374605
      1088.50   0.00298852
      1089.00   0.00306116
      1089.50   0.00700165
      1090.00   0.00986798
      1090.50   0.00584933
      1091.00   0.00250706
      1091.50   0.00237783
      1092.00    0.0126845
      1092.50    0.0259296
      1093.00    0.0179463
      1093.50   0.00500046
      1094.00   0.00237934
      1094.50   0.00632316
      1095.00    0.0114119
      1095.50   0.00817042
      1096.00   0.00320675
      1096.50   0.00246420
      1097.00    0.0157727
      1097.50    0.0300880
      1098.00    0.0164474
      1098.50   0.00286163
      1099.00   0.00229809
      1099.50   0.00227431
      1100.00   0.00255809
